# Format: McCode with text headers
# URL: http://www.mccode.org
# Creator: McStas 2.4.1 - Jun. 26, 2017
# Instrument: H2-1_IN3.instr
# Ncount: 1000000
# Trace: no
# Gravitation: no
# Seed: 1544036493
# Directory: C:\JOB\github\PIK_neutron_guide_system\main\good_m\H2-1_IN3_20181205_193453
# Date: Wed Dec 05 19:35:04 2018 (1544027704)
# type: array_1d(100)
# Source: test1 (H2-1_IN3.instr)
# component: Monlam
# position: -0.383212 0 27.0174
# title: Wavelength [Angs] monitor
# Ncount: 1000000
# filename: H2-1_IN3.L
# statistics: X0=2.89135; dX=1.65525;
# signal: Min=0; Max=3.46005e+008; Mean=3.95742e+007;
# values: 3.95742e+009 3.5474e+007 832251
# xvar: L
# yvar: (I,I_err)
# xlabel: Wavelength [Angs]
# ylabel: Intensity [n/s/cm2/bin]
# xlimits: 0.1 20
# variables: L I I_err N
0.1995 0 0 0 
0.3985 0.002911903796 0.002712811065 7 
0.5975 708994.6479 351923.7941 26 
0.7965 10865055.21 2887954.289 91 
0.9955 53651299.92 8035323.983 218 
1.1945 137217575.2 13208683.83 459 
1.3935 192355831.1 13979555.6 892 
1.5925 263850284.4 14137679.88 1420 
1.7915 334681420.2 13849794.1 1995 
1.9905 342981179.4 11660579.67 2424 
2.1895 346004825 9979097.281 2867 
2.3885 325084977.3 8287024.665 3508 
2.5875 286306984.3 6630784.535 3923 
2.7865 240037851.2 5206450.357 4265 
2.9855 208370521.4 4179138.236 4904 
3.1845 177997597.3 3358693.653 5614 
3.3835 142904535.3 2609100.258 5881 
3.5825 120280392.2 2114200.564 6199 
3.7815 101983803.9 1721415.31 6597 
3.9805 84983424.57 1398903.215 6945 
4.1795 73719369.79 1162182.475 7345 
4.3785 60584173.11 944470.7977 7428 
4.5775 53616163.81 802090.0639 7787 
4.7765 46116710.87 672901.8391 8053 
4.9755 38401856.39 554781.5976 8111 
5.1745 34388989.45 481829.9988 8504 
5.3735 30354153.27 415909.4678 8671 
5.5725 26006674.43 351813.2849 8852 
5.7715 22704000.89 302713.7553 8850 
5.9705 19967779.07 263076.9157 8960 
6.1695 17880366.42 230357.5692 9330 
6.3685 15993528.6 202376.5945 9525 
6.5675 13805912.4 174472.423 9374 
6.7665 12535870.49 154789.6048 9737 
6.9655 11178532.94 136772.3035 9884 
7.1645 9750993.721 119495.1873 9666 
7.3635 8772363.502 106330.6747 9724 
7.5625 7842584.49 94378.41044 9839 
7.7615 7182744.142 84980.7692 9954 
7.9605 6236039.42 74576.00136 9712 
8.1595 5709997.933 67221.79473 9891 
8.3585 5264922.045 61015.42115 10025 
8.5575 4623628.01 53913.71334 9795 
8.7565 4229273.837 48959.49738 9821 
8.9555 3873032.689 44427.44231 9918 
9.1545 3542315.963 40316.83392 9905 
9.3535 3194207.366 36363.85396 9851 
9.5525 2968186.007 33343.64819 9978 
9.7515 2699360.412 30311.46833 9891 
9.9505 2502834.639 27784.07045 10051 
10.1495 2266112.722 25280.91635 9836 
10.3485 2096416.713 23193.91245 9928 
10.5475 1924897.791 21207.78206 9942 
10.7465 1796503.793 19635.42687 9940 
10.9455 1617311.339 17800.09433 9837 
11.1445 1507444.426 16460.45426 9854 
11.3435 1384848.562 15133.00992 9840 
11.5425 1288119.192 14009.44286 9900 
11.7415 1209655.975 13029.97384 9984 
11.9405 1113753.145 11995.37932 9989 
12.1395 1038077.731 11148.03933 9946 
12.3385 971233.8248 10375.50407 10021 
12.5375 901256.1611 9616.420373 9982 
12.7365 832746.5047 8906.481972 9904 
12.9355 785560.5453 8325.369831 10008 
13.1345 727735.5253 7736.432727 9894 
13.3335 688834.6372 7244.167268 10099 
13.5325 639827.8702 6746.692824 10004 
13.7315 597057.1591 6295.30852 9949 
13.9305 556722.1874 5871.771557 9916 
14.1295 528878.6775 5526.167447 10097 
14.3285 493372.213 5160.975639 10021 
14.5275 466531.8785 4859.492928 10046 
14.7265 427300.4614 4498.198561 9843 
14.9255 413154.5381 4287.035124 10080 
15.1245 374882.1772 3943.548787 9816 
15.3235 362573.3018 3764.044065 10011 
15.5225 338544.5357 3523.725957 9945 
15.7215 319913.6336 3325.123347 9930 
15.9205 303267.3721 3140.013561 9978 
16.1195 280160.8996 2927.050056 9820 
16.3185 263685.5144 2755.59629 9785 
16.5175 250896.612 2611.292965 9839 
16.7165 236162.925 2458.419824 9830 
16.9155 228498.6769 2351.307265 10003 
17.1145 213824.0786 2211.553157 9881 
17.3135 202623.2972 2094.207366 9883 
17.5125 194188.2944 1994.900048 9970 
17.7115 180975.8325 1871.325552 9833 
17.9105 173751.6246 1783.701136 9974 
18.1095 162616.0693 1682.949828 9781 
18.3085 157411.7032 1612.839832 9965 
18.5075 147646.3979 1520.294728 9869 
18.7065 137761.6272 1430.791441 9675 
18.9055 133908.6421 1373.592495 9910 
19.1045 126629.6497 1303.03417 9825 
19.3035 120439.084 1239.371903 9810 
19.5025 113034.3865 1171.149557 9667 
19.7015 110686.6388 1130.874644 9913 
19.9005 104145.1824 1069.979605 9811 
