# Format: McCode with text headers
# URL: http://www.mccode.org
# Creator: McStas 2.5 - Dec. 12, 2018
# Instrument: H3-0_DEDM.instr
# Ncount: 1000000
# Trace: no
# Gravitation: no
# Seed: 1567156080
# Directory: /Users/peterkonik/JOB/git_repos/PIK_neutron_guide_system/main/really_last_one/H3-0_DEDM_20190829_192748/3
# Param: n=4
# Param: guide_start_width=0.03
# Param: guide_start_height=0.03
# Param: source_lambda_min=0.1
# Param: source_lambda_max=20
# Param: cold_regime=1
# Date: Thu Aug 29 19:28:02 2019 (1567096082)
# type: array_1d(100)
# Source: H3_0 (H3-0_DEDM.instr)
# component: Monlam
# position: 0.371547 0 11.3101
# title: Wavelength [Angs] monitor
# Ncount: 1000000
# filename: H3-0_DEDM.lam
# statistics: X0=7.65492; dX=3.53579;
# signal: Min=0; Max=6.95949e+07; Mean=1.99191e+07;
# values: 1.99191e+09 8.87522e+06 662700
# xvar: L
# yvar: (I,I_err)
# xlabel: Wavelength [Angs]
# ylabel: Intensity [n/s/cm2/bin]
# xlimits: 0 20
# variables: L I I_err N
0.1 0 0 0 
0.3 0 0 0 
0.5 0 0 0 
0.7 3.446350059e-70 3.974349301e-70 3 
0.9 6.118270575e-29 6.603962354e-29 4 
1.1 0.0006400289039 0.0006225332446 8 
1.3 63263.26178 43140.50165 33 
1.5 546308.6383 226681.1076 78 
1.7 684765.1024 262093.0899 169 
1.9 530773.4513 224575.9907 211 
2.1 1663256.668 333252.0208 347 
2.3 2529124.552 449471.8588 507 
2.5 4905444.436 608371.4876 714 
2.7 7955684.287 729777.9054 902 
2.9 12299185 976706.0987 1164 
3.1 17050917.67 1210660.226 1162 
3.3 20587751.6 1367664.082 1263 
3.5 28974371.23 1633256.149 1373 
3.7 34950620.59 1821168.788 1497 
3.9 41904559.51 1984816.168 1716 
4.1 48871076.73 2125265.037 2002 
4.3 55227954.57 2181855.689 2267 
4.5 57642555.38 2166084.038 2430 
4.7 64472721.71 2232099.181 2445 
4.9 68772774.77 2240141.806 2630 
5.1 69594936.17 2184834.879 2822 
5.3 68748563.24 2078330.657 2891 
5.5 64625941.48 1948512.524 3012 
5.7 61093126.17 1805486.521 3116 
5.9 64420273.27 1775658.571 3480 
6.1 58164719.98 1618167.352 3826 
6.3 57086065.6 1526184.147 4238 
6.5 54420112.55 1421909.588 4820 
6.7 51710748.5 1320072.94 5755 
6.9 47402318.47 1197047.98 6090 
7.1 49575659.28 1163659.532 6748 
7.3 47121623 1080496.764 6926 
7.5 43696851.28 992235.3575 7250 
7.7 42848247.15 931765.9492 7642 
7.9 38170255.03 841897.9183 7769 
8.1 35246666.88 772926.0171 7886 
8.3 35572854.19 744400.6525 8291 
8.5 34420953.8 698669.5894 8577 
8.7 30850796.86 630040.9118 8553 
8.9 29389159.32 589815.4263 8797 
9.1 27470667.98 546072.5856 8807 
9.3 26445293.55 510272.596 9189 
9.5 24375706.06 469267.7607 9188 
9.7 22139919.68 430516.483 9188 
9.9 21132954.39 402966.9725 9179 
10.1 20224505 377975.6649 9386 
10.3 19604594.78 357080.4095 9602 
10.5 18177326.17 328553.9802 9720 
10.7 17052849.95 304500.1248 9480 
10.9 16406591.01 285931.966 9510 
11.1 15616920.19 266037.8295 9408 
11.3 15126493.3 249927.0329 9590 
11.5 14219547.88 231844.6719 9337 
11.7 13989360.97 220017.9342 9362 
11.9 13706184.48 208655.0883 9596 
12.1 13125706.2 195740.181 9666 
12.3 12239169.1 181385.4989 9454 
12.5 11782656.91 171368.6991 9466 
12.7 11299947.61 161150.2247 9454 
12.9 10646585.79 150393.9024 9467 
13.1 10470586.23 144693.648 9646 
13.3 9873311.936 135173.5637 9492 
13.5 9709869.143 129972.1385 9695 
13.7 9148726.921 121489.0565 9578 
13.9 8696263.103 114278.7953 9520 
14.1 8415176.578 109377.9714 9524 
14.3 8216307.943 104373.9352 9575 
14.5 7726285.223 97590.60736 9605 
14.7 7209091.257 91019.70316 9349 
14.9 6973984.029 86797.34214 9502 
15.1 6838729.706 83582.79065 9717 
15.3 6441453.256 78731.46914 9447 
15.5 6141647.612 74640.89175 9410 
15.7 5902947.197 71065.3479 9425 
15.9 5696910.559 67689.29895 9585 
16.1 5492194.291 64477.14917 9577 
16.3 5322084.501 61901.94286 9609 
16.5 5025164.667 58364.7079 9593 
16.7 4842738.788 55663.82151 9609 
16.9 4648688.564 53244.16295 9529 
17.1 4479469.303 50970.25806 9515 
17.3 4313602.894 48607.78019 9587 
17.5 4037948.704 45759.0791 9456 
17.7 3866443.664 43586.74071 9463 
17.9 3723324.007 41726.7464 9483 
18.1 3642979.001 40315.89228 9593 
18.3 3425429.946 38140.40466 9402 
18.5 3309864.276 36618.23247 9456 
18.7 3180035.868 34981.24876 9512 
18.9 3076696.656 33661.96133 9487 
19.1 2954137.861 32122.13199 9584 
19.3 2777718.283 30457.82261 9328 
19.5 2692921.893 29261.95054 9482 
19.7 2597480.776 28100.08048 9499 
19.9 2459485.716 26723.44625 9403 
